T(K)   C(J/molK)
78.806	63.021
79.013	29.049
79.220	31.043
79.422	29.807
79.624	30.261
79.827	30.178
80.030	30.239
80.232	30.278
80.433	30.212
80.635	30.132
80.838	30.809
81.042	30.298
81.248	30.100
81.452	31.167
81.655	30.521
81.860	30.669
82.064	30.851
82.265	30.908
82.468	30.908
82.672	30.909
82.875	31.083
83.078	30.824
83.280	31.073
83.485	30.619
83.689	31.718
83.893	31.156
84.097	31.500
84.300	31.591
84.501	31.572
84.703	31.448
84.906	31.887
85.109	31.881
85.312	32.205
85.515	32.221
85.718	32.076
85.920	32.501
86.123	32.648
86.324	33.017
86.525	32.563
86.726	33.091
86.928	33.459
87.129	33.535
87.329	34.110
87.531	34.107
87.734	34.153
87.938	35.819
88.139	36.347
88.341	36.248
88.546	38.036
88.749	39.640
88.950	41.729
89.151	43.623
89.349	46.109
89.548	46.497
89.750	45.567
89.951	43.316
90.153	40.884
90.356	38.473
90.559	37.024
90.759	35.985
90.959	35.121
91.162	34.717
91.365	34.342
91.567	34.418
91.770	34.201
91.971	34.097
92.172	33.925
92.373	34.006
92.575	33.846
92.778	33.621
92.982	33.777
93.186	33.747
93.388	33.745
93.590	33.664
93.793	33.398
93.997	33.685
94.200	33.553
94.402	33.641
94.604	33.391
94.807	33.931
95.009	33.276
95.210	33.732
95.413	33.625
95.615	33.441
95.819	34.076
96.022	33.902
96.225	33.690
96.428	34.087
96.631	33.847
96.835	33.787
97.038	34.218
97.238	34.242
97.439	33.578
97.640	34.342
97.842	33.994
98.044	33.668
98.246	34.215
98.447	33.927
98.649	34.022
98.851	34.278
99.052	34.406
99.254	33.914
99.457	34.680
99.659	34.117
99.861	34.309
100.064	34.422
100.267	34.777
100.468	34.558
100.670	34.667
100.873	34.253
101.075	34.657
101.279	34.382
101.481	35.070
101.682	34.343
101.885	34.564
102.088	34.776
102.290	34.893
102.493	34.644
102.695	35.217
102.897	34.863
103.099	34.780
103.301	35.434
103.504	34.716
103.709	35.180
103.912	35.364
104.113	35.284
104.315	35.153
104.519	35.200
104.722	35.660
104.926	34.942
105.130	35.633
105.332	35.229
105.535	35.403
105.737	35.625
105.937	35.512
106.138	35.572
106.338	35.539
106.539	35.972
106.740	35.474
106.942	36.031
107.143	36.069
107.346	35.508
107.549	36.089
107.750	36.167
107.951	35.671
108.153	36.212
108.355	36.205
108.556	36.110
108.756	36.218
108.956	36.176
109.159	36.060
109.362	36.163
109.566	35.930
109.771	36.731
109.972	36.486
110.172	36.637
110.372	36.462
110.574	36.784
110.777	36.261
110.979	37.082
111.181	36.629
111.383	36.713
111.585	37.173
111.787	36.717
111.990	37.201
112.192	36.830
112.393	36.883
112.596	37.031
112.798	36.949
113.000	37.372
113.201	36.841
113.404	37.234
113.608	36.986
113.811	37.963
114.012	37.367
114.214	36.954
114.416	37.985
114.617	37.526
114.818	37.994
115.019	37.339
115.222	37.650
115.426	37.522
115.629	37.837
115.831	37.936
116.032	38.085
116.232	37.786
116.433	37.968
116.634	37.897
116.837	37.827
117.039	38.317
117.243	37.702
117.445	38.725
117.646	38.401
117.849	37.924
118.051	38.651
118.252	38.689
118.454	38.228
118.659	38.671
118.862	38.785
119.063	38.428
119.263	38.584
119.463	38.772
119.663	38.824
119.864	38.075
120.066	39.304
120.268	38.555
120.470	39.464
120.672	38.691
120.873	39.264
121.073	39.372
121.274	39.166
121.475	39.361
121.675	39.264
121.876	39.375
122.077	39.537
122.277	38.937
122.478	39.281
122.681	39.364
122.882	39.574
123.082	39.551
123.283	39.639
123.485	39.549
123.687	40.157
123.889	39.707
124.091	39.780
124.293	40.115
124.494	40.266
124.694	40.199
124.893	40.122
125.093	40.126
125.295	39.949
125.497	39.972
125.700	40.225
125.903	40.377
126.105	40.499
126.307	40.163
126.510	40.522
126.713	40.720
126.916	40.707
127.118	40.790
127.321	40.886
127.522	41.029
127.725	40.693
127.926	41.329
128.127	40.690
128.328	41.076
128.530	41.120
128.732	40.842
128.932	41.393
129.132	41.104
129.333	41.125
129.535	41.110
129.738	41.870
129.940	41.072
130.143	42.000
130.345	41.545
130.547	41.744
130.748	41.791
130.948	42.273
131.149	41.474
131.351	42.500
131.552	41.943
131.755	41.882
131.958	42.280
132.159	42.351
132.358	42.121
132.557	41.890
132.757	42.511
132.957	42.001
133.158	42.879
133.361	42.371
133.562	43.275
133.762	42.540
133.963	43.047
134.164	42.282
134.366	43.427
134.566	43.154
134.767	43.023
134.969	42.887
135.170	43.208
135.371	43.003
135.573	43.590
135.773	43.191
135.973	43.436
136.174	43.140
136.376	44.168
136.577	43.447
136.779	43.788
136.979	44.050
137.179	44.367
137.378	43.869
137.579	43.890
137.780	44.395
137.982	43.882
138.183	44.450
138.385	44.106
138.587	44.697
138.790	44.089
138.993	44.998
139.193	44.877
139.394	44.586
139.597	44.723
139.800	45.158
140.001	45.130
140.203	44.994
140.404	45.601
140.606	45.328
140.808	45.535
141.009	45.517
141.211	45.635
141.412	45.579
141.613	45.725
141.816	45.368
142.017	45.978
142.219	45.278
142.422	45.949
142.624	46.115
142.824	46.103
143.023	46.461
143.224	45.989
143.424	46.474
143.624	46.534
143.824	46.318
144.024	46.387
144.225	46.729
144.427	46.734
144.628	46.113
144.830	47.013
145.032	46.459
145.234	46.919
145.435	47.186
145.635	46.671
145.836	46.777
146.038	47.169
146.239	47.242
146.440	47.204
146.641	47.880
146.842	47.390
147.043	47.946
147.244	47.333
147.445	48.156
147.646	47.469
147.847	47.899
148.046	47.536
148.246	47.963
148.447	47.771
148.648	47.839
148.848	48.637
149.048	48.253
149.248	48.329
149.448	48.642
149.649	48.404
149.848	49.449
150.048	48.357
150.248	49.130
150.448	48.389
150.649	49.002
150.850	48.583
151.050	49.248
151.250	48.974
151.450	49.304
151.651	49.385
151.852	49.066
152.052	49.893
152.253	49.686
152.454	49.582
152.656	50.241
152.856	49.843
153.056	50.039
153.258	50.256
153.458	50.300
153.657	50.020
153.855	50.055
154.055	50.166
154.255	50.116
154.456	50.065
154.657	51.656
154.856	50.467
155.056	51.035
155.257	51.338
155.458	50.977
155.660	50.798
155.862	52.328
156.063	51.026
156.264	50.982
156.465	51.938
156.666	51.414
156.866	51.507
157.068	51.365
157.270	52.106
157.470	52.075
157.671	52.376
157.871	52.188
158.072	52.162
158.275	52.793
158.476	53.006
158.678	52.535
158.879	52.590
159.079	52.503
159.278	53.613
159.477	52.311
159.677	52.937
159.876	53.514
160.075	53.090
160.277	53.605
160.479	53.686
160.681	53.583
160.883	54.249
161.084	54.033
161.283	54.052
161.483	54.177
161.683	53.635
161.883	54.321
162.084	54.485
162.285	54.473
162.486	54.567
162.688	54.536
162.891	55.196
163.093	55.015
163.294	55.785
163.495	55.074
163.697	56.426
163.896	55.202
164.097	55.123
164.299	55.596
164.500	56.269
164.700	55.799
164.901	55.753
165.101	56.875
165.301	56.526
165.501	56.699
165.702	56.844
165.902	58.460
166.102	57.636
166.302	57.191
166.503	56.919
166.705	57.244
166.907	57.041
167.107	58.388
167.307	57.595
167.507	58.405
167.706	58.375
167.906	58.173
168.107	58.772
168.308	58.154
168.509	59.378
168.710	58.626
168.911	59.556
169.111	59.338
169.311	58.734
169.513	59.249
169.714	59.972
169.915	59.347
170.116	60.829
170.316	60.639
170.516	60.578
170.717	60.877
170.918	60.479
171.118	60.503
171.320	60.809
171.521	62.223
171.720	60.940
171.920	61.546
172.121	61.707
172.320	62.521
172.521	61.739
172.722	63.407
172.922	62.910
173.123	62.849
173.322	63.632
173.521	62.222
173.722	63.559
173.922	63.924
174.122	64.147
174.321	64.425
174.521	64.449
174.723	64.415
174.922	66.486
175.121	64.941
175.322	65.402
175.523	66.110
175.722	66.444
175.922	66.136
176.122	66.662
176.323	67.647
176.523	67.180
176.723	68.898
176.923	68.841
177.123	68.293
177.325	69.173
177.525	70.591
177.725	69.504
177.926	70.742
178.126	71.670
178.326	72.748
178.524	73.180
178.724	73.658
178.925	75.550
179.125	76.777
179.325	78.050
179.525	80.854
179.724	82.806
179.922	82.770
180.122	75.681
180.323	65.314
180.526	56.456
180.728	52.812
180.928	49.062
181.130	47.440
181.332	46.204
181.534	46.127
181.734	44.857
181.935	44.272
182.136	44.077
182.337	43.668
182.539	43.940
182.741	43.269
182.943	43.169
183.143	43.665
183.342	43.116
183.544	42.561
183.745	42.619
183.946	42.988
184.148	42.445
184.350	42.225
184.552	41.993
184.755	41.728
184.958	42.163
185.160	41.374
185.362	42.401
185.565	41.117
185.768	42.173
185.970	41.084
186.173	42.017
186.375	41.849
186.578	41.425
186.781	41.584
186.982	42.056
187.182	41.525
187.383	41.294
187.585	41.553
187.787	40.928
187.989	41.067
188.190	41.231
188.392	40.854
188.593	41.252
188.793	41.385
188.995	40.836
189.196	40.878
189.397	41.678
189.598	40.892
189.800	41.673
190.002	41.441
190.204	40.857
190.409	41.305
190.612	41.643
190.813	40.953
191.014	40.776
191.217	41.212
191.418	41.065
191.620	40.650
191.823	40.991
192.026	41.280
192.228	40.947
192.429	41.592
192.630	41.147
192.832	41.170
193.035	41.264
193.236	41.781
193.437	41.219
193.638	41.271
193.841	41.342
194.042	41.573
194.242	40.954
194.443	41.113
194.644	41.114
194.845	41.067
195.047	41.261
195.246	41.516
195.446	41.076
195.647	41.516
195.847	41.663
196.049	41.269
196.252	41.794
196.452	41.932
196.653	41.499
196.856	41.483
197.057	41.688
197.258	41.054
197.459	41.297
197.661	41.203
197.863	41.507
198.065	41.133
198.267	41.128
198.469	41.710
198.670	41.642
198.871	41.599
199.071	41.595
199.272	41.498
199.473	41.749
199.674	41.502
199.876	41.826
 
